; (content of file \\Mai-b11e5c0abfd\d8\User\55373\0851539\0831\0810\0810A_2th_1.raw)
_FILEVERSION = 2
_SAMPLE = 
_+SAMPLE = 
_SITE = Taiwan
_USER = Administrator
_GONIOMETER_CODE = 20
_STAGE_CODE = 13
; Goniometer : D8 theta/2theta, stage : Unknown
_SAMPLE_CHANGER_CODE = 0
_ATTACHMENTS_CODE = 0
_GONIOMETER_RADIUS = 300
_FIXED_DIVSLIT = 0.6
_FIXED_SAMPLESLIT = 0
_FIXED_DETSLIT = 0.1
_MONOCHROMATOR = 0
; Incident beam monochromator : None
_THIN_FILM = N
_BETA_FILTER = N
_FIXED_ANTISLIT = 0.6
_ANALYZER_CODE = 0
; Received beam analyzer : None
_DATEMEASURED = "31-Aug-2021 18:20:17"
_WL_UNIT = A
_WL1 = 1.5406
_WL2 = 1.54439
_WL3 = 1.39222
_WLRATIO = 0.5
_ANODE = Cu

; Data for range 1
_DRIVE = COUPLED
_STEPTIME = 0.2
_STEPSIZE = 0.02
_STEPMODE = C
_START = 35
_THETA = 16.425
_2THETA = 35
_KHI = 0
_PHI = -178
_X = 0
_Y = 0
_Z = -0.1364
_DETECTOR = 1
; Detector type : Scintillation counter
_HV = 662
_GAIN = 80
_LLD = 0.545
_ULD = 1.917
_DETECTORSLIT = out
_AUX1 = 0
_AUX2 = 0
_AUX3 = 0
_TIMESTARTED = 16
_TEMP_RATE = -1
_TEMP_DELAY = -1
_KV = 40
_MA = 40
_RANGE_WL = 1.5406
_3DPLANE = 0
_V4_COUNTERS_MASK = 1
_V4_DRIVES_MASK = 0
_V4_ENCODERS_MASK = 0
_2THETACOUNTS = 1
; 2THETA  Cnt1_D1
  35.0000          3
  35.0200          4
  35.0400          5
  35.0600          4
  35.0800          3
  35.1000          4
  35.1200          3
  35.1400          3
  35.1600          1
  35.1800          4
  35.2000          1
  35.2200          5
  35.2400          3
  35.2600          3
  35.2800          2
  35.3000          5
  35.3200          2
  35.3400          8
  35.3600          4
  35.3800          5
  35.4000          2
  35.4200          2
  35.4400          2
  35.4600          3
  35.4800          4
  35.5000          3
  35.5200          4
  35.5400          2
  35.5600          4
  35.5800          6
  35.6000          3
  35.6200          1
  35.6400          2
  35.6600          4
  35.6800          3
  35.7000          2
  35.7200          1
  35.7400          5
  35.7600          1
  35.7800          4
  35.8000          4
  35.8200          1
  35.8400          4
  35.8600          5
  35.8800          1
  35.9000          5
  35.9200          2
  35.9400          3
  35.9600          5
  35.9800          6
  36.0000          3
  36.0200          2
  36.0400          2
  36.0600          3
  36.0800          2
  36.1000          5
  36.1200          5
  36.1400          2
  36.1600          4
  36.1800          1
  36.2000          5
  36.2200          2
  36.2400          2
  36.2600          4
  36.2800          6
  36.3000          3
  36.3200          3
  36.3400          0
  36.3600          2
  36.3800          3
  36.4000          3
  36.4200          2
  36.4400          2
  36.4600          1
  36.4800          2
  36.5000          2
  36.5200          7
  36.5400          2
  36.5600          1
  36.5800          2
  36.6000          2
  36.6200          4
  36.6400          2
  36.6600          2
  36.6800          2
  36.7000          3
  36.7200          3
  36.7400          2
  36.7600          1
  36.7800          2
  36.8000          5
  36.8200          5
  36.8400          5
  36.8600          2
  36.8800          3
  36.9000          7
  36.9200          2
  36.9400          4
  36.9600          4
  36.9800          5
  37.0000          2
  37.0200          3
  37.0400          3
  37.0600          1
  37.0800          1
  37.1000          6
  37.1200          4
  37.1400          2
  37.1600          5
  37.1800          4
  37.2000          4
  37.2200          3
  37.2400          5
  37.2600          3
  37.2800          2
  37.3000          3
  37.3200          3
  37.3400          2
  37.3600          2
  37.3800          2
  37.4000          4
  37.4200          2
  37.4400          2
  37.4600          3
  37.4800          1
  37.5000          1
  37.5200          4
  37.5400          2
  37.5600          4
  37.5800          5
  37.6000          3
  37.6200          3
  37.6400          4
  37.6600          2
  37.6800          5
  37.7000          4
  37.7200          4
  37.7400          6
  37.7600         10
  37.7800          6
  37.8000          6
  37.8200          5
  37.8400          5
  37.8600          4
  37.8800          9
  37.9000         13
  37.9200          5
  37.9400          5
  37.9600          9
  37.9800          0
  38.0000          6
  38.0200          7
  38.0400         12
  38.0600          9
  38.0800         13
  38.1000          7
  38.1200         11
  38.1400         16
  38.1600         10
  38.1800         14
  38.2000          7
  38.2200         11
  38.2400         16
  38.2600         13
  38.2800         10
  38.3000         21
  38.3200          6
  38.3400          6
  38.3600          7
  38.3800          9
  38.4000          8
  38.4200          9
  38.4400          9
  38.4600          8
  38.4800          9
  38.5000          7
  38.5200         11
  38.5400          2
  38.5600          3
  38.5800          5
  38.6000          4
  38.6200          2
  38.6400          8
  38.6600          2
  38.6800          4
  38.7000          8
  38.7200          6
  38.7400          2
  38.7600          3
  38.7800          1
  38.8000          3
  38.8200          6
  38.8400          2
  38.8600          5
  38.8800          5
  38.9000          2
  38.9200          5
  38.9400          2
  38.9600          0
  38.9800          1
  39.0000          5
  39.0200          4
  39.0400          6
  39.0600          1
  39.0800          4
  39.1000          1
  39.1200          5
  39.1400          4
  39.1600          3
  39.1800          4
  39.2000          3
  39.2200          6
  39.2400          3
  39.2600          7
  39.2800          2
  39.3000          3
  39.3200          6
  39.3400          1
  39.3600          2
  39.3800          2
  39.4000          1
  39.4200          2
  39.4400          0
  39.4600          5
  39.4800          4
  39.5000          3
  39.5200          5
  39.5400          1
  39.5600          3
  39.5800          3
  39.6000          3
  39.6200          3
  39.6400          2
  39.6600          2
  39.6800          4
  39.7000          4
  39.7200          5
  39.7400          2
  39.7600          1
  39.7800          6
  39.8000          3
  39.8200          5
  39.8400          2
  39.8600         10
  39.8800          5
  39.9000          2
  39.9200          3
  39.9400          3
  39.9600          6
  39.9800          3
  40.0000          7
  40.0200          3
  40.0400          5
  40.0600          4
  40.0800          4
  40.1000          6
  40.1200          2
  40.1400          2
  40.1600          2
  40.1800          4
  40.2000          3
  40.2200          7
  40.2400          2
  40.2600          1
  40.2800          4
  40.3000          4
  40.3200          0
  40.3400          2
  40.3600          5
  40.3800          2
  40.4000          2
  40.4200          3
  40.4400          8
  40.4600          5
  40.4800          7
  40.5000          1
  40.5200          1
  40.5400          5
  40.5600          2
  40.5800          2
  40.6000          1
  40.6200          6
  40.6400          1
  40.6600          3
  40.6800          2
  40.7000          4
  40.7200          3
  40.7400          4
  40.7600          2
  40.7800          4
  40.8000          5
  40.8200          7
  40.8400          1
  40.8600          3
  40.8800          4
  40.9000          5
  40.9200          1
  40.9400          2
  40.9600          4
  40.9800          5
  41.0000          2
  41.0200          2
  41.0400          6
  41.0600          6
  41.0800          1
  41.1000          4
  41.1200          4
  41.1400          0
  41.1600          4
  41.1800          2
  41.2000          3
  41.2200          1
  41.2400          5
  41.2600          1
  41.2800          6
  41.3000          1
  41.3200          5
  41.3400          4
  41.3600          3
  41.3800          2
  41.4000          5
  41.4200          3
  41.4400          5
  41.4600          5
  41.4800          1
  41.5000          8
  41.5200          3
  41.5400          4
  41.5600          4
  41.5800          7
  41.6000          3
  41.6200          6
  41.6400          9
  41.6600          5
  41.6800          8
  41.7000          2
  41.7200          1
  41.7400          5
  41.7600          3
  41.7800          4
  41.8000          5
  41.8200          4
  41.8400          3
  41.8600          2
  41.8800          5
  41.9000          3
  41.9200          1
  41.9400          5
  41.9600          1
  41.9800          5
  42.0000          6
  42.0200          6
  42.0400          3
  42.0600          2
  42.0800          7
  42.1000          3
  42.1200          1
  42.1400          1
  42.1600          5
  42.1800          3
  42.2000          3
  42.2200          2
  42.2400          3
  42.2600          3
  42.2800          3
  42.3000          1
  42.3200          3
  42.3400          3
  42.3600          2
  42.3800          2
  42.4000          1
  42.4200          1
  42.4400          3
  42.4600          2
  42.4800          3
  42.5000          1
  42.5200          2
  42.5400          5
  42.5600          2
  42.5800          4
  42.6000          4
  42.6200          2
  42.6400          6
  42.6600          1
  42.6800          4
  42.7000          0
  42.7200          3
  42.7400          2
  42.7600          3
  42.7800          2
  42.8000          1
  42.8200          2
  42.8400          1
  42.8600          0
  42.8800          0
  42.9000          5
  42.9200          1
  42.9400          3
  42.9600          1
  42.9800          6
  43.0000          2
  43.0200          3
  43.0400          4
  43.0600          5
  43.0800          5
  43.1000          1
  43.1200          4
  43.1400          2
  43.1600          3
  43.1800          2
  43.2000          4
  43.2200          0
  43.2400          5
  43.2600          2
  43.2800          3
  43.3000          4
  43.3200          3
  43.3400          5
  43.3600          4
  43.3800          5
  43.4000          3
  43.4200          4
  43.4400          2
  43.4600          3
  43.4800          4
  43.5000          2
  43.5200          2
  43.5400          4
  43.5600          2
  43.5800          6
  43.6000          1
  43.6200          3
  43.6400          3
  43.6600          2
  43.6800          4
  43.7000          4
  43.7200          6
  43.7400          2
  43.7600          0
  43.7800          4
  43.8000          1
  43.8200          1
  43.8400          5
  43.8600          3
  43.8800          6
  43.9000          5
  43.9200          4
  43.9400          5
  43.9600          2
  43.9800          1
  44.0000          5
  44.0200          8
  44.0400          3
  44.0600          4
  44.0800          6
  44.1000          3
  44.1200          6
  44.1400          8
  44.1600          5
  44.1800          6
  44.2000         10
  44.2200          8
  44.2400          5
  44.2600          8
  44.2800          7
  44.3000          2
  44.3200          9
  44.3400          9
  44.3600          3
  44.3800          3
  44.4000          6
  44.4200         10
  44.4400          7
  44.4600          4
  44.4800          8
  44.5000          9
  44.5200         10
  44.5400          7
  44.5600          8
  44.5800          4
  44.6000          3
  44.6200          4
  44.6400          3
  44.6600          9
  44.6800          8
  44.7000          5
  44.7200          8
  44.7400          2
  44.7600          5
  44.7800          9
  44.8000          4
  44.8200          0
  44.8400          3
  44.8600          5
  44.8800          7
  44.9000          2
  44.9200          4
  44.9400          3
  44.9600          4
  44.9800          1
  45.0000          2
  45.0200          7
  45.0400          5
  45.0600          1
  45.0800          2
  45.1000          1
  45.1200          2
  45.1400          5
  45.1600          2
  45.1800          4
  45.2000          4
  45.2200          2
  45.2400          1
  45.2600          8
  45.2800          4
  45.3000          5
  45.3200          1
  45.3400          6
  45.3600          1
  45.3800          4
  45.4000          4
  45.4200          3
  45.4400          1
  45.4600          1
  45.4800          3
  45.5000          3
  45.5200          4
  45.5400          9
  45.5600          2
  45.5800          4
  45.6000          4
  45.6200          4
  45.6400          1
  45.6600          1
  45.6800          1
  45.7000          3
  45.7200          5
  45.7400          5
  45.7600          4
  45.7800          2
  45.8000          3
  45.8200          6
  45.8400          6
  45.8600          2
  45.8800          1
  45.9000          2
  45.9200          4
  45.9400          1
  45.9600          5
  45.9800          4
  46.0000          2
  46.0200          6
  46.0400          1
  46.0600          2
  46.0800          2
  46.1000          7
  46.1200          3
  46.1400          4
  46.1600          4
  46.1800          0
  46.2000          0
  46.2200          0
  46.2400          5
  46.2600          2
  46.2800          4
  46.3000          6
  46.3200          2
  46.3400          3
  46.3600          9
  46.3800          3
  46.4000          0
  46.4200          1
  46.4400          3
  46.4600          4
  46.4800          6
  46.5000          1
  46.5200          1
  46.5400          3
  46.5600          2
  46.5800          2
  46.6000          4
  46.6200          4
  46.6400          2
  46.6600          4
  46.6800          4
  46.7000          2
  46.7200          0
  46.7400          0
  46.7600          7
  46.7800          2
  46.8000          3
  46.8200          6
  46.8400          0
  46.8600          3
  46.8800          2
  46.9000          0
  46.9200          4
  46.9400          2
  46.9600          5
  46.9800          3
  47.0000          0
  47.0200          6
  47.0400          1
  47.0600          4
  47.0800          6
  47.1000          2
  47.1200          2
  47.1400          2
  47.1600          5
  47.1800          5
  47.2000          2
  47.2200          3
  47.2400          3
  47.2600          5
  47.2800          2
  47.3000          2
  47.3200          2
  47.3400          3
  47.3600          1
  47.3800          2
  47.4000          4
  47.4200          5
  47.4400          2
  47.4600          2
  47.4800          3
  47.5000          3
  47.5200          2
  47.5400          4
  47.5600          1
  47.5800          4
  47.6000          3
  47.6200          0
  47.6400          4
  47.6600          4
  47.6800          4
  47.7000          1
  47.7200          6
  47.7400          2
  47.7600          3
  47.7800          1
  47.8000          2
  47.8200          1
  47.8400          4
  47.8600          3
  47.8800          0
  47.9000          3
  47.9200          5
  47.9400          2
  47.9600          3
  47.9800          3
  48.0000          2
  48.0200          2
  48.0400          2
  48.0600          1
  48.0800          3
  48.1000          2
  48.1200          3
  48.1400          6
  48.1600          3
  48.1800          5
  48.2000          1
  48.2200          3
  48.2400          1
  48.2600          3
  48.2800          7
  48.3000          2
  48.3200          3
  48.3400          1
  48.3600          2
  48.3800          3
  48.4000          4
  48.4200          1
  48.4400          5
  48.4600          2
  48.4800          2
  48.5000          2
  48.5200          3
  48.5400          2
  48.5600          3
  48.5800          1
  48.6000          4
  48.6200          5
  48.6400          1
  48.6600          4
  48.6800          2
  48.7000          0
  48.7200          3
  48.7400          1
  48.7600          2
  48.7800          3
  48.8000          1
  48.8200          2
  48.8400          4
  48.8600          3
  48.8800          2
  48.9000          1
  48.9200          3
  48.9400          5
  48.9600          2
  48.9800          1
  49.0000          3
  49.0200          1
  49.0400          4
  49.0600          3
  49.0800          3
  49.1000          3
  49.1200          3
  49.1400          2
  49.1600          2
  49.1800          4
  49.2000          2
  49.2200          3
  49.2400          1
  49.2600          3
  49.2800          2
  49.3000          3
  49.3200          1
  49.3400          2
  49.3600          1
  49.3800          0
  49.4000          0
  49.4200          3
  49.4400          5
  49.4600          1
  49.4800          1
  49.5000          1
  49.5200          4
  49.5400          1
  49.5600          3
  49.5800          4
  49.6000          2
  49.6200          0
  49.6400          4
  49.6600          8
  49.6800          2
  49.7000          2
  49.7200          8
  49.7400          2
  49.7600          2
  49.7800          2
  49.8000          5
  49.8200          3
  49.8400          2
  49.8600          4
  49.8800          3
  49.9000          3
  49.9200          0
  49.9400          4
  49.9600          0
  49.9800          2
  50.0000          1
  50.0200          2
  50.0400          2
  50.0600          4
  50.0800          1
  50.1000          2
  50.1200          1
  50.1400          2
  50.1600          1
  50.1800          1
  50.2000          5
  50.2200          1
  50.2400          1
  50.2600          6
  50.2800          1
  50.3000          5
  50.3200          5
  50.3400          2
  50.3600          1
  50.3800          2
  50.4000          1
  50.4200          3
  50.4400          5
  50.4600          4
  50.4800          3
  50.5000          2
  50.5200          0
  50.5400          3
  50.5600          6
  50.5800          1
  50.6000          2
  50.6200          1
  50.6400          1
  50.6600          3
  50.6800          3
  50.7000          0
  50.7200          6
  50.7400          2
  50.7600          1
  50.7800          5
  50.8000          4
  50.8200          4
  50.8400          2
  50.8600          1
  50.8800          4
  50.9000          7
  50.9200          3
  50.9400          1
  50.9600          1
  50.9800          4
  51.0000          1
  51.0200          2
  51.0400          6
  51.0600          4
  51.0800          1
  51.1000          4
  51.1200          1
  51.1400          0
  51.1600          1
  51.1800          1
  51.2000          2
  51.2200          4
  51.2400          6
  51.2600          4
  51.2800          2
  51.3000          3
  51.3200          1
  51.3400          6
  51.3600          1
  51.3800          0
  51.4000          4
  51.4200          1
  51.4400          1
  51.4600          2
  51.4800          3
  51.5000          0
  51.5200          2
  51.5400         10
  51.5600          2
  51.5800          5
  51.6000          1
  51.6200          0
  51.6400          3
  51.6600          3
  51.6800          2
  51.7000          1
  51.7200          2
  51.7400          1
  51.7600          3
  51.7800          1
  51.8000          3
  51.8200          3
  51.8400          3
  51.8600          3
  51.8800          1
  51.9000          6
  51.9200          3
  51.9400          4
  51.9600          1
  51.9800          3
  52.0000          0
  52.0200          3
  52.0400          2
  52.0600          3
  52.0800          3
  52.1000          3
  52.1200          1
  52.1400          6
  52.1600          2
  52.1800          3
  52.2000          2
  52.2200          2
  52.2400          6
  52.2600          1
  52.2800          3
  52.3000          2
  52.3200          4
  52.3400          3
  52.3600          6
  52.3800          4
  52.4000          2
  52.4200          3
  52.4400          0
  52.4600          2
  52.4800          2
  52.5000          3
  52.5200          0
  52.5400          2
  52.5600          1
  52.5800          1
  52.6000          4
  52.6200          4
  52.6400          4
  52.6600          0
  52.6800          2
  52.7000          0
  52.7200          1
  52.7400          3
  52.7600          6
  52.7800          3
  52.8000          1
  52.8200          5
  52.8400          7
  52.8600          3
  52.8800          3
